#string ID
methane [CH4], solid, 90K

#Martonchik & Orton, 1994, Appl. Opt. 33, 8306

#nr. of wavelength #inc. angles #aspect ratio #density [kg/m^3] #sub.temp #delta  #align
40     1     1     420     0     1     0

#wavelength    real refractive index    imaginary refractive index
1.140e-08     9.993e-01     2.607e-03
5.450e-08     8.420e-01     2.332e-01
9.000e-08     1.228e+00     7.096e-01
9.870e-08     1.491e+00     5.681e-01
1.012e-07     1.486e+00     5.203e-01
1.087e-07     1.554e+00     4.104e-01
1.162e-07     1.515e+00     3.518e-01
1.200e-07     1.530e+00     3.632e-01
1.337e-07     1.767e+00     1.981e-01
4.000e-07     1.326e+00     1.000e-10
1.000e-06     1.313e+00     1.000e-10
1.138e-06     1.313e+00     1.900e-05
1.165e-06     1.313e+00     4.577e-05
1.336e-06     1.312e+00     5.023e-05
1.371e-06     1.312e+00     1.828e-05
1.385e-06     1.312e+00     9.073e-06
1.402e-06     1.312e+00     3.642e-05
1.412e-06     1.312e+00     2.368e-05
1.669e-06     1.311e+00     4.737e-04
1.724e-06     1.311e+00     2.446e-04
1.785e-06     1.311e+00     8.213e-05
1.796e-06     1.311e+00     1.807e-04
2.317e-06     1.307e+00     3.453e-03
2.324e-06     1.310e+00     6.189e-03
2.329e-06     1.314e+00     3.096e-03
2.377e-06     1.306e+00     5.058e-03
2.379e-06     1.312e+00     9.199e-03
2.381e-06     1.316e+00     5.547e-03
3.315e-06     1.190e+00     1.312e-01
3.322e-06     1.339e+00     2.564e-01
3.330e-06     1.451e+00     1.107e-01
3.534e-06     1.318e+00     2.877e-03
3.546e-06     1.319e+00     4.574e-03
3.565e-06     1.321e+00     2.570e-03
7.675e-06     8.100e-01     4.585e-01
7.692e-06     1.265e+00     9.598e-01
7.710e-06     1.845e+00     5.199e-01
3.636e-05     1.316e+00     7.624e-04
6.250e-05     1.317e+00     2.636e-03
1.000e-04     1.318e+00     2.387e-03
