#Robert Brunngraeber (email: rbrunngraeber@astrophysik.uni-kiel.de)

#Post-Doc at CAU Kiel
#CAU Kiel / ITAP / Astrophysics
#Leibnizstr. 15
#24118 Kiel
#Germany
#History:   2019-02-05

#string ID
organics (Pollack et al. 1994; download from http://www2.mpia-hd.mpg.de/home/henning/Dust_opacities/Opacities/RI/old_ri.html)

#nr. of wavelength #inc. angles #aspect ratio #density [kg/m^3] #sub.temp #delta  #align
74     1       1       1500    1200    0       0

#wavelength       real refractive index    imaginary refractive index
     0.100000e-9        1.45762                 0.861250
     0.111000e-9        1.60052                 0.747501
     0.125000e-9        1.76506                 0.535512
     0.137000e-9        1.80157                 0.367900
     0.143500e-9        1.79798                 0.307988
     0.155000e-9        1.76964                 0.138732
     0.165000e-9        1.74591                 0.138564
     0.200000e-9        1.63905                 0.195446
     0.227000e-9        1.71949                 0.189948
     0.250000e-9        1.71940                 0.168934
     0.263000e-9        1.70648                 0.162256
     0.278000e-9        1.71275                 0.149062
     0.297000e-9        1.72241                 0.129007
     0.300000e-9        1.72249                 0.127025
     0.460000e-9        1.67769                 0.0257150
     0.610000e-9        1.64103                 0.0133850
     1.00000e-9         1.62248                 0.0124672
     1.50400e-9         1.60824                 0.0199692
     1.85000e-9         1.60781                 0.0208556
     2.00000e-9         1.60965                 0.0211196
     2.24500e-9         1.61784                 0.0284673
     2.73300e-9         1.59918                 0.0512451
     2.87200e-9         1.59912                 0.0632666
     3.02700e-9         1.60673                 0.0701045
     3.14400e-9         1.61210                 0.0743664
     3.73300e-9         1.64938                 0.0430263
     4.56100e-9         1.62828                 0.0387528
     5.35000e-9         1.61662                 0.0486497
     6.00000e-9         1.59946                 0.0964869
     7.00000e-9         1.60824                 0.0924851
     8.00000e-9         1.62086                 0.0850464
     8.50000e-9         1.61830                 0.0895322
     8.75000e-9         1.61764                 0.0923683
     9.00000e-9         1.61578                 0.100397
    10.0000e-9          1.59583                 0.127942
    10.5000e-9          1.59204                 0.135603
    11.0000e-9          1.58982                 0.150907
    11.5000e-9          1.58752                 0.167257
    12.5000e-9          1.58086                 0.196238
    13.0000e-9          1.57655                 0.245362
    13.5000e-9          1.57141                 0.286531
    14.0000e-9          1.56833                 0.302814
    15.0000e-9          1.62645                 0.353203
    15.5000e-9          1.65468                 0.393626
    16.5000e-9          1.73677                 0.398539
    17.0000e-9          1.73529                 0.377543
    18.5000e-9          1.81027                 0.288871
    19.5000e-9          1.81540                 0.258113
    20.5000e-9          1.82097                 0.218096
    22.0000e-9          1.80522                 0.207456
    23.5000e-9          1.78607                 0.211775
    26.0000e-9          1.81099                 0.314188
    27.0000e-9          1.82938                 0.354594
    29.0000e-9          1.91176                 0.395344
    30.0000e-9          1.91861                 0.412059
    35.0000e-9          2.12288                 0.325874
    40.5000e-9          2.23377                 0.289000
    50.0000e-9          2.26381                 0.249946
    82.3000e-9          2.31650                 0.174717
   100.000e-9           2.30743                 0.145671
   170.000e-9           2.29694                 0.0888011
   268.100e-9           2.28957                 0.0555728
   300.400e-9           2.28867                 0.0504133
   400.000e-9           2.29062                 0.0339693
   500.000e-9           2.29096                 0.0189886
   800.000e-9           2.29088                 0.00429845
  1000.00e-9            2.29082                 0.00295225
  1300.00e-9            2.29106                 0.00272809
  2000.00e-9            2.28849                 0.00240669
  5000.00e-9            2.28918                 0.00214447
 10000.0e-9             2.29197                 0.00189468
 20000.0e-9             2.29279                 0.00160052
 50000.0e-9             2.29085                 0.00146993
100000.e-9              2.29307                 0.00170000
